input file for Chapidif
Dielectric function model: Mermin
ELF reference:Novak et al J elec spec rel phen 163 7 2008
density,5.323, unit cell mass,72.64
Amplitude	Gamma(eV)	Omega(eV) 
0.0001224 	0.06825	0.1
0.000124 	0.06825	0.1525
0.0001271 	0.06996	0.2063
0.0001304 	0.07171	0.2615
0.0001337 	0.0735	0.318
0.0001371 	0.07534	0.376
0.0001407 	0.07722	0.4354
0.0001444 	0.07915	0.4962
0.0001482 	0.08113	0.5586
0.0001521 	0.08316	0.6226
0.0001562 	0.08523	0.6882
0.0001604 	0.08737	0.7554
0.0001648 	0.08955	0.8243
0.0001694 	0.09179	0.8949
0.0001742 	0.09408	0.9672
0.0001793 	0.09644	1.041
0.0001846 	0.09885	1.117
0.0001903 	0.1013	1.195
0.0001963 	0.1039	1.275
0.0002029 	0.1064	1.357
0.0002101 	0.1091	1.441
0.0002182 	0.1118	1.527
0.0002276 	0.1146	1.615
0.000239 	0.1175	1.706
0.0002541 	0.1204	1.798
0.0002766 	0.1234	1.893
0.0003193 	0.1265	1.991
0.0004304 	0.1297	2.09
0.0006172 	0.1329	2.193
0.0006941 	0.1363	2.297
0.0008637 	0.1397	2.405
0.0009808 	0.1432	2.515
0.001015 	0.1467	2.628
0.001065 	0.1504	2.744
0.001073 	0.1542	2.862
0.001016 	0.158	2.984
0.0009601 	0.162	3.108
0.0009449 	0.166	3.236
0.0009634 	0.1702	3.367
0.0009836 	0.1744	3.501
0.0009735 	0.1788	3.639
0.0009381 	0.1833	3.78
0.000905 	0.1878	3.924
0.0008615 	0.1925	4.072
0.0007477 	0.1973	4.224
0.0007025 	0.2023	4.38
0.0008108 	0.2073	4.539
0.0009964 	0.2125	4.703
0.001225 	0.2178	4.87
0.001454 	0.2233	5.042
0.001624 	0.2289	5.218
0.001703 	0.2346	5.398
0.001716 	0.2404	5.583
0.001715 	0.2465	5.773
0.001735 	0.2526	5.967
0.001793 	0.2589	6.166
0.001893 	0.2654	6.371
0.002034 	0.272	6.58
0.002205 	0.2788	6.794
0.002392 	0.2858	7.014
0.002581 	0.293	7.24
0.002757 	0.3003	7.471
0.002914 	0.3078	7.707
0.003054 	0.3155	7.95
0.003185 	0.3234	8.199
0.003319 	0.3315	8.454
0.003466 	0.3397	8.715
0.00364 	0.3482	8.983
0.003851 	0.3569	9.258
0.004113 	0.3659	9.539
0.00444 	0.375	9.827
0.004853 	0.3844	10.12
0.005376 	0.394	10.43
0.006042 	0.4039	10.74
0.006896 	0.4139	11.06
0.007995 	0.4243	11.38
0.009412 	0.4349	11.72
0.01123 	0.4458	12.06
0.01351 	0.4569	12.41
0.01631 	0.4683	12.77
0.01963 	0.4801	13.14
0.02348 	0.4921	13.52
0.02798 	0.5044	13.91
0.03344 	0.517	14.3
0.04043 	0.5299	14.71
0.04954 	0.5431	15.13
0.06071 	0.5567	15.56
0.07139 	0.5706	16
0.0752 	0.5849	16.45
0.06732 	0.5995	16.91
0.05223 	0.6145	17.38
0.03765 	0.6299	17.87
0.02673 	0.6456	18.36
0.01927 	0.6618	18.87
0.01426 	0.6783	19.39
0.01085 	0.6953	19.93
0.00848 	0.7126	20.48
0.006792 	0.7305	21.04
0.005561 	0.7487	21.61
0.004645 	0.7674	22.2
0.003949 	0.7866	22.81
0.003412 	0.8063	23.43
0.002994 	0.8264	24.06
0.002664 	0.8471	24.72
0.002403 	0.8683	25.38
0.002198 	0.89	26.07
0.002039 	0.9122	26.77
0.001922 	0.935	27.49
0.00185 	0.9584	28.23
0.001834 	0.9824	28.98
0.001915 	1.007	29.76
0.002216 	1.032	30.55
0.002959 	1.058	31.37
0.003249 	1.084	32.2
0.002621 	1.111	33.05
0.002383 	1.139	33.93
0.00243 	1.168	34.83
0.002478 	1.197	35.75
0.002311 	1.227	36.69
0.002009 	1.258	37.66
0.001741 	1.289	38.65
0.001556 	1.321	39.67
0.001435 	1.354	40.71
0.001357 	1.388	41.78
0.001307 	1.423	42.87
0.001276 	1.458	43.99
0.001256 	1.495	45.14
0.001246 	1.532	46.32
0.001242 	1.57	47.53
0.001243 	1.61	48.77
0.001247 	1.65	50.04
0.001255 	1.691	51.34
0.001264 	1.734	52.67
0.001275 	1.777	54.04
0.001286 	1.821	55.44
0.001298 	1.867	56.88
0.001309 	1.913	58.35
0.00132 	1.961	59.86
0.001329 	2.01	61.4
0.001337 	2.061	62.99
0.001342 	2.112	64.61
0.001345 	2.165	66.28
0.001344 	2.219	67.99
0.00134 	2.275	69.74
0.001332 	2.331	71.53
0.00132 	2.39	73.37
0.001305 	2.449	75.25
0.001285 	2.511	77.18
0.001262 	2.573	79.16
0.001236 	2.638	81.19
0.001208 	2.704	83.27
0.001177 	2.771	85.4
0.001145 	2.841	87.59
0.001111 	2.912	89.83
0.001077 	2.984	92.12
0.001044 	3.059	94.48
0.001011 	3.135	96.89
0.0009788 	3.214	99.36
0.0009483 	3.294	101.9
0.0009194 	3.377	104.5
0.0008925 	3.461	107.2
0.0008675 	3.547	109.9
0.0008445 	3.636	112.7
0.0008234 	3.727	115.5
0.0008041 	3.82	118.5
0.0007864 	3.916	121.5
0.00077 	4.014	124.6
0.0007546 	4.114	127.7
0.0007399 	4.217	131
0.0007255 	4.322	134.3
0.0007109 	4.43	137.7
0.0006959 	4.541	141.2
0.00068 	4.655	144.8
0.000663 	4.771	148.5
0.0006446 	4.89	152.2
0.0006246 	5.013	156.1
0.000603 	5.138	160
0.0005798 	5.266	164.1
0.0005551 	5.398	168.2
0.0005292 	5.533	172.5
0.0005023 	5.671	176.9
0.0004747 	5.813	181.3
0.0004468 	5.958	185.9
0.000419 	6.107	190.6
0.0003915 	6.26	195.4
0.0003646 	6.416	200.4
0.0003387 	6.577	205.4
0.0003138 	6.741	210.6
0.0002901 	6.91	215.9
0.0002677 	7.083	221.4
0.0002466 	7.26	227
0.000227 	7.441	232.7
0.0002087 	7.627	238.5
0.0001917 	7.818	244.6
0.000176 	8.013	250.7
0.0001615 	8.214	257
0.0001482 	8.419	263.5
0.0001359 	8.629	270.2
0.0001247 	8.845	277
0.0001144 	9.066	283.9
0.000105 	9.293	291.1
9.631e-05 	9.525	298.4
8.84e-05 	9.763	305.9
8.116e-05 	10.01	313.6
7.453e-05 	10.26	321.5
6.846e-05 	10.51	329.6
6.291e-05 	10.78	337.9
5.783e-05 	11.05	346.4
5.318e-05 	11.32	355.1
4.891e-05 	11.61	364
4.501e-05 	11.9	373.2
4.143e-05 	12.19	382.6
3.815e-05 	12.5	392.2
3.514e-05 	12.81	402
3.237e-05 	13.13	412.1
2.984e-05 	13.46	422.5
2.751e-05 	13.8	433.1
2.537e-05 	14.14	444
2.34e-05 	14.49	455.1
2.16e-05 	14.86	466.5
1.993e-05 	15.23	478.3
1.84e-05 	15.61	490.3
1.7e-05 	16	502.6
1.57e-05 	16.4	515.2
1.45e-05 	16.81	528.1
1.34e-05 	17.23	541.4
1.239e-05 	17.66	554.9
1.145e-05 	18.1	568.9
1.059e-05 	18.55	583.1
9.796e-06 	19.02	597.8
9.061e-06 	19.49	612.8
8.383e-06 	19.98	628.1
7.758e-06 	20.48	643.9
7.18e-06 	20.99	660
6.646e-06 	21.52	676.6
6.152e-06 	22.05	693.5
5.696e-06 	22.61	710.9
5.275e-06 	23.17	728.8
4.885e-06 	23.75	747
4.525e-06 	24.34	765.8
4.192e-06 	24.95	784.9
3.883e-06 	25.58	804.6
3.598e-06 	26.22	824.8
3.334e-06 	26.87	845.5
3.09e-06 	27.54	866.6
2.864e-06 	28.23	888.4
2.654e-06 	28.94	910.6
2.46e-06 	29.66	933.4
2.281e-06 	30.4	956.8
2.115e-06 	31.16	980.8
